threshold	A	u(A)
9589	1.506964	0.000368
7397	1.506327	0.000368
5100	1.507601	0.000368
7916	1.507278	0.000368
7752	1.507741	0.000368
6810	1.507000	0.000368
7063	1.507021	0.000368
5893	1.506596	0.000368
7054	1.507209	0.000368
8792	1.507125	0.000368
9122	1.507352	0.000368
7534	1.506810	0.000368
8033	1.507015	0.000368
7553	1.506915	0.000368
9002	1.507004	0.000368
6311	1.507288	0.000368
9610	1.507053	0.000368
8087	1.506794	0.000368
9530	1.506760	0.000368
9143	1.506972	0.000368
7222	1.506694	0.000368
5899	1.507499	0.000368
8791	1.507993	0.000368
7257	1.506986	0.000368
9394	1.507071	0.000368
8446	1.506581	0.000368
7498	1.507260	0.000368
7707	1.507259	0.000368
8238	1.507144	0.000368
8202	1.506841	0.000368
7866	1.506734	0.000368
8525	1.506365	0.000368
9910	1.506695	0.000368
7470	1.506813	0.000368
8465	1.506823	0.000368
8243	1.507427	0.000368
6876	1.506925	0.000368
9915	1.506357	0.000368
6493	1.507047	0.000368
8283	1.507217	0.000368
8127	1.506649	0.000368
9240	1.507554	0.000368
6808	1.507197	0.000368
8861	1.507006	0.000368
6858	1.507326	0.000368
6999	1.507278	0.000368
7605	1.507315	0.000368
6885	1.507495	0.000368
7080	1.507486	0.000368
8806	1.505881	0.000368
7057	1.507155	0.000368
5368	1.507933	0.000368
7571	1.507340	0.000368
5586	1.507659	0.000368
7066	1.507428	0.000368
8025	1.507530	0.000368
7961	1.507304	0.000368
5874	1.507021	0.000368
5240	1.507642	0.000368
8969	1.507056	0.000368
8388	1.507439	0.000368
6695	1.506938	0.000368
9018	1.506840	0.000368
8471	1.507724	0.000368
5980	1.507346	0.000368
7165	1.507015	0.000368
9698	1.506991	0.000368
8726	1.506614	0.000368
5583	1.506853	0.000368
9915	1.507073	0.000368
7776	1.506966	0.000368
7886	1.507082	0.000368
7961	1.506799	0.000368
9263	1.506403	0.000368
8345	1.507340	0.000368
9290	1.506691	0.000368
6263	1.507701	0.000368
8873	1.507022	0.000368
9926	1.506758	0.000368
5622	1.506645	0.000368
8968	1.506754	0.000368
6846	1.506513	0.000368
5747	1.506951	0.000368
9057	1.506988	0.000368
5391	1.506943	0.000368
8219	1.506292	0.000368
5508	1.507789	0.000368
7900	1.506785	0.000368
7678	1.506990	0.000368
6278	1.507263	0.000368
8718	1.506312	0.000368
6397	1.506595	0.000368
5543	1.506773	0.000368
9816	1.506997	0.000368
9088	1.507032	0.000368
7361	1.506506	0.000368
7596	1.507436	0.000368
7136	1.506783	0.000368
9588	1.506922	0.000368
6624	1.507221	0.000368
9433	1.506876	0.000368
9409	1.507038	0.000368
5358	1.507326	0.000368
8706	1.507301	0.000368
8551	1.506813	0.000368
5975	1.506647	0.000368
8403	1.506593	0.000368
9902	1.506833	0.000368
6300	1.507061	0.000368
7400	1.507195	0.000368
6973	1.506933	0.000368
8285	1.507181	0.000368
6480	1.507440	0.000368
8552	1.507143	0.000368
7436	1.507441	0.000368
8078	1.506401	0.000368
6603	1.506848	0.000368
8199	1.507211	0.000368
7982	1.507284	0.000368
8023	1.507177	0.000368
8820	1.506286	0.000368
6257	1.506793	0.000368
5249	1.506817	0.000368
9090	1.506492	0.000368
8834	1.507673	0.000368
9565	1.506854	0.000368
7587	1.507864	0.000368
6442	1.506664	0.000368
8669	1.506728	0.000368
6567	1.507382	0.000368
8290	1.506226	0.000368
6056	1.508141	0.000368
8020	1.506998	0.000368
8854	1.506785	0.000368
7946	1.506891	0.000368
5203	1.507427	0.000368
8381	1.506205	0.000368
9437	1.506567	0.000368
5005	1.507196	0.000368
6280	1.507099	0.000368
5918	1.507659	0.000368
8180	1.507022	0.000368
7071	1.506942	0.000368
8976	1.507116	0.000368
6548	1.506466	0.000368
6976	1.507301	0.000368
9710	1.506647	0.000368
9817	1.507756	0.000368
9699	1.507349	0.000368
7745	1.507090	0.000368
5567	1.506653	0.000368
9984	1.506875	0.000368
7708	1.507087	0.000368
7317	1.507372	0.000368
8744	1.506904	0.000368
7279	1.507151	0.000368
9609	1.507047	0.000368
9700	1.506769	0.000368
6154	1.507458	0.000368
8835	1.506878	0.000368
5774	1.507109	0.000368
9643	1.507035	0.000368
9196	1.507458	0.000368
9963	1.506775	0.000368
8134	1.506956	0.000368
8843	1.506639	0.000368
8607	1.507376	0.000368
8493	1.506211	0.000368
7350	1.506977	0.000368
8488	1.507400	0.000368
8278	1.506584	0.000368
5960	1.507661	0.000368
9911	1.506861	0.000368
6672	1.506912	0.000368
6344	1.506984	0.000368
8310	1.506310	0.000368
5741	1.507039	0.000368
5653	1.506988	0.000368
7148	1.506956	0.000368
5104	1.507602	0.000368
9957	1.507579	0.000368
9819	1.506484	0.000368
6947	1.506782	0.000368
8414	1.506289	0.000368
6644	1.507098	0.000368
7422	1.506884	0.000368
9754	1.507206	0.000368
7145	1.506569	0.000368
7071	1.506955	0.000368
7347	1.507247	0.000368
6974	1.507178	0.000368
5833	1.507100	0.000368
7350	1.506727	0.000368
7144	1.506747	0.000368
7258	1.507233	0.000368
7647	1.507584	0.000368
8757	1.505985	0.000368
5195	1.507635	0.000368
6031	1.506325	0.000368
7649	1.506338	0.000368
6454	1.506461	0.000368
6104	1.506834	0.000368
5007	1.507441	0.000368
8624	1.507051	0.000368
8467	1.506954	0.000368
8117	1.506519	0.000368
8535	1.507442	0.000368
7024	1.506656	0.000368
9375	1.506712	0.000368
7750	1.507268	0.000368
9124	1.507202	0.000368
7905	1.506774	0.000368
8303	1.506979	0.000368
6442	1.507055	0.000368
7767	1.506740	0.000368
7393	1.507295	0.000368
6759	1.506808	0.000368
7347	1.506878	0.000368
5451	1.507389	0.000368
7023	1.507443	0.000368
6050	1.507544	0.000368
8152	1.506701	0.000368
5205	1.507566	0.000368
6868	1.507463	0.000368
5126	1.507487	0.000368
8082	1.507436	0.000368
6171	1.507113	0.000368
8263	1.507462	0.000368
6379	1.506743	0.000368
7746	1.506442	0.000368
5381	1.507094	0.000368
9555	1.507092	0.000368
6034	1.506866	0.000368
8319	1.507023	0.000368
8433	1.507003	0.000368
5590	1.507287	0.000368
7132	1.506970	0.000368
9443	1.506527	0.000368
7363	1.507607	0.000368
7507	1.506998	0.000368
7831	1.507524	0.000368
8667	1.506512	0.000368
6567	1.507845	0.000368
7986	1.507634	0.000368
5970	1.506689	0.000368
5373	1.507649	0.000368
6282	1.506967	0.000368
7910	1.506749	0.000368
6093	1.507331	0.000368
6848	1.506910	0.000368
9944	1.506516	0.000368
7384	1.507705	0.000368
8653	1.506816	0.000368
7858	1.507125	0.000368
6214	1.507247	0.000368
9121	1.507537	0.000368
6416	1.507030	0.000368
7671	1.506900	0.000368
8552	1.506611	0.000368
5034	1.507675	0.000368
6742	1.507248	0.000368
9337	1.506862	0.000368
8122	1.506576	0.000368
7719	1.506305	0.000368
8689	1.507740	0.000368
5889	1.507251	0.000368
5181	1.507936	0.000368
6550	1.507224	0.000368
8860	1.506883	0.000368
9908	1.506780	0.000368
5776	1.507678	0.000368
8439	1.506685	0.000368
7437	1.507760	0.000368
8857	1.506989	0.000368
8374	1.506708	0.000368
5184	1.507543	0.000368
6485	1.506813	0.000368
5893	1.507102	0.000368
9708	1.507102	0.000368
6389	1.506953	0.000368
6226	1.507372	0.000368
7225	1.507129	0.000368
9338	1.507006	0.000368
7266	1.506870	0.000368
9007	1.507227	0.000368
6174	1.507778	0.000368
8196	1.507209	0.000368
8513	1.506992	0.000368
6142	1.507045	0.000368
5647	1.507252	0.000368
6284	1.506585	0.000368
8642	1.506731	0.000368
9290	1.507102	0.000368
5127	1.507312	0.000368
8044	1.506683	0.000368
7049	1.506989	0.000368
7820	1.506699	0.000368
6688	1.506891	0.000368
9183	1.506424	0.000368
6186	1.507845	0.000368
8038	1.506408	0.000368
5519	1.506897	0.000368
8566	1.506894	0.000368
9273	1.507409	0.000368
6383	1.507533	0.000368
9476	1.506535	0.000368
5193	1.507227	0.000368
5797	1.507260	0.000368
6111	1.507338	0.000368
8880	1.507462	0.000368
7320	1.507115	0.000368
5926	1.507201	0.000368
7102	1.507603	0.000368
6903	1.507446	0.000368
7413	1.507205	0.000368
7725	1.507155	0.000368
9463	1.506628	0.000368
8998	1.507146	0.000368
9334	1.507147	0.000368
8957	1.506779	0.000368
7672	1.507196	0.000368
8532	1.507132	0.000368
6907	1.508014	0.000368
7528	1.507666	0.000368
6968	1.506679	0.000368
8800	1.507140	0.000368
9024	1.506885	0.000368
8528	1.506848	0.000368
6996	1.506845	0.000368
8743	1.507001	0.000368
9536	1.507252	0.000368
8259	1.507404	0.000368
7282	1.507459	0.000368
9883	1.507464	0.000368
8807	1.506389	0.000368
8676	1.506831	0.000368
7019	1.506758	0.000368
7412	1.507512	0.000368
6608	1.507610	0.000368
8914	1.507171	0.000368
5579	1.507761	0.000368
5406	1.507766	0.000368
5836	1.506546	0.000368
5883	1.506992	0.000368
9867	1.506671	0.000368
7795	1.506626	0.000368
9509	1.506848	0.000368
9002	1.507202	0.000368
5126	1.507417	0.000368
6271	1.506651	0.000368
9387	1.506628	0.000368
5362	1.507279	0.000368
8884	1.506551	0.000368
5754	1.507264	0.000368
6474	1.505932	0.000368
7017	1.507220	0.000368
6729	1.508125	0.000368
5296	1.507295	0.000368
7002	1.507070	0.000368
7327	1.506856	0.000368
9274	1.507299	0.000368
7203	1.507336	0.000368
7280	1.506714	0.000368
9455	1.507871	0.000368
6985	1.507200	0.000368
5701	1.507021	0.000368
9881	1.507259	0.000368
6296	1.506841	0.000368
7700	1.507265	0.000368
6806	1.507345	0.000368
8342	1.506894	0.000368
7998	1.507805	0.000368
8934	1.507078	0.000368
7101	1.507084	0.000368
7537	1.506834	0.000368
7316	1.506614	0.000368
7718	1.507496	0.000368
6864	1.506801	0.000368
5793	1.507040	0.000368
7766	1.507110	0.000368
7890	1.506605	0.000368
5618	1.506807	0.000368
9097	1.506820	0.000368
8712	1.507304	0.000368
7135	1.507427	0.000368
5476	1.506746	0.000368
5870	1.506245	0.000368
8000	1.506876	0.000368
5097	1.507305	0.000368
9106	1.507009	0.000368
7708	1.507397	0.000368
5667	1.506678	0.000368
8182	1.507560	0.000368
8381	1.507310	0.000368
9724	1.507048	0.000368
6486	1.507098	0.000368
7803	1.507495	0.000368
8188	1.506065	0.000368
6516	1.507296	0.000368
7809	1.506826	0.000368
5478	1.507876	0.000368
5628	1.507787	0.000368
6890	1.507495	0.000368
6330	1.506716	0.000368
5317	1.508191	0.000368
7812	1.506852	0.000368
9325	1.507555	0.000368
5913	1.507115	0.000368
9685	1.506606	0.000368
8649	1.507011	0.000368
5104	1.507064	0.000368
7608	1.507550	0.000368
7812	1.507032	0.000368
7034	1.507212	0.000368
6114	1.507044	0.000368
7983	1.506696	0.000368
7689	1.507633	0.000368
8884	1.506551	0.000368
6493	1.506953	0.000368
6195	1.506664	0.000368
7231	1.507503	0.000368
8372	1.506857	0.000368
7014	1.507275	0.000368
8495	1.506482	0.000368
7091	1.506942	0.000368
9244	1.507237	0.000368
5848	1.507312	0.000368
8407	1.507294	0.000368
7973	1.507041	0.000368
7405	1.507081	0.000368
6685	1.506523	0.000368
8581	1.507093	0.000368
8363	1.506890	0.000368
7408	1.507614	0.000368
7455	1.506820	0.000368
7124	1.506711	0.000368
7401	1.507039	0.000368
6456	1.507003	0.000368
6442	1.506918	0.000368
8666	1.507068	0.000368
9986	1.506663	0.000368
6012	1.507625	0.000368
5071	1.506701	0.000368
9191	1.506897	0.000368
9628	1.506849	0.000368
6548	1.507152	0.000368
8107	1.507641	0.000368
8443	1.507091	0.000368
9654	1.506897	0.000368
8902	1.507327	0.000368
5120	1.507335	0.000368
8102	1.506957	0.000368
5985	1.507422	0.000368
6417	1.506910	0.000368
7638	1.506940	0.000368
8911	1.506919	0.000368
9948	1.507081	0.000368
5885	1.507376	0.000368
9131	1.506931	0.000368
6249	1.507998	0.000368
8522	1.506670	0.000368
8426	1.506760	0.000368
5116	1.507670	0.000368
5796	1.507401	0.000368
6106	1.506652	0.000368
7980	1.506328	0.000368
9315	1.507559	0.000368
6313	1.507529	0.000368
8304	1.507056	0.000368
8411	1.506966	0.000368
6618	1.507098	0.000368
9493	1.507018	0.000368
7600	1.507186	0.000368
7135	1.507278	0.000368
9340	1.506853	0.000368
8047	1.506505	0.000368
9145	1.506512	0.000368
6922	1.506894	0.000368
8624	1.506949	0.000368
6739	1.507713	0.000368
5990	1.507445	0.000368
5628	1.506970	0.000368
6625	1.506814	0.000368
9253	1.506651	0.000368
5606	1.506796	0.000368
7861	1.506687	0.000368
6995	1.507487	0.000368
5042	1.507330	0.000368
8147	1.507411	0.000368
9339	1.507555	0.000368
5609	1.507139	0.000368
5104	1.506717	0.000368
7137	1.506733	0.000368
6659	1.507128	0.000368
5412	1.507501	0.000368
9067	1.506930	0.000368
9244	1.506462	0.000368
7441	1.506929	0.000368
5033	1.506909	0.000368
9896	1.506177	0.000368
5875	1.507775	0.000368
9181	1.506986	0.000368
8113	1.506923	0.000368
7789	1.507518	0.000368
9481	1.507321	0.000368
7083	1.507560	0.000368
8631	1.507408	0.000368
6408	1.508058	0.000368
8234	1.507156	0.000368
6001	1.506626	0.000368
6574	1.507109	0.000368
9912	1.507517	0.000368
9435	1.506835	0.000368
7955	1.507878	0.000368
5302	1.507967	0.000368
5569	1.506992	0.000368
6503	1.507277	0.000368
6947	1.507594	0.000368
6127	1.507431	0.000368
9134	1.506425	0.000368
7153	1.506401	0.000368
6250	1.507873	0.000368
6565	1.506817	0.000368
8220	1.506797	0.000368
9464	1.506842	0.000368
7073	1.507127	0.000368
8127	1.506896	0.000368
5225	1.506884	0.000368
8697	1.507325	0.000368
7491	1.506941	0.000368
6352	1.507791	0.000368
5583	1.507375	0.000368
9901	1.507086	0.000368
8258	1.507116	0.000368
6023	1.507266	0.000368
9319	1.507056	0.000368
7360	1.506852	0.000368
8525	1.506743	0.000368
8633	1.507147	0.000368
9666	1.506939	0.000368
8169	1.506676	0.000368
5809	1.507062	0.000368
6290	1.507819	0.000368
5760	1.506701	0.000368
5299	1.507189	0.000368
9933	1.506495	0.000368
7278	1.507429	0.000368
7157	1.505895	0.000368
8218	1.507235	0.000368
7120	1.507373	0.000368
7632	1.507081	0.000368
9714	1.507030	0.000368
9030	1.506498	0.000368
5813	1.507011	0.000368
9578	1.506378	0.000368
7186	1.507833	0.000368
5804	1.507496	0.000368
9646	1.506654	0.000368
5487	1.507411	0.000368
8335	1.506074	0.000368
8135	1.506846	0.000368
6129	1.507155	0.000368
6517	1.507169	0.000368
7391	1.507050	0.000368
6487	1.506962	0.000368
5265	1.507397	0.000368
7908	1.507398	0.000368
7397	1.506726	0.000368
7986	1.506742	0.000368
9810	1.506868	0.000368
6072	1.506411	0.000368
9572	1.507152	0.000368
5469	1.507390	0.000368
9539	1.507196	0.000368
5045	1.507865	0.000368
6746	1.507180	0.000368
7990	1.507544	0.000368
8725	1.506839	0.000368
6701	1.506966	0.000368
6571	1.507039	0.000368
6803	1.506834	0.000368
8136	1.506708	0.000368
9409	1.507065	0.000368
9913	1.507243	0.000368
9396	1.506872	0.000368
6445	1.506474	0.000368
6890	1.507360	0.000368
6475	1.506663	0.000368
9212	1.506963	0.000368
8945	1.507408	0.000368
5211	1.507635	0.000368
6837	1.507086	0.000368
9908	1.507340	0.000368
5283	1.508044	0.000368
8479	1.506771	0.000368
9466	1.507169	0.000368
8123	1.507334	0.000368
9455	1.506534	0.000368
7125	1.507338	0.000368
8786	1.506878	0.000368
6313	1.506873	0.000368
8082	1.506837	0.000368
9732	1.507314	0.000368
7372	1.506984	0.000368
5494	1.506847	0.000368
7043	1.507556	0.000368
8758	1.507276	0.000368
5889	1.507215	0.000368
7660	1.507272	0.000368
8069	1.507149	0.000368
8253	1.507501	0.000368
7696	1.507002	0.000368
8315	1.506745	0.000368
8595	1.507147	0.000368
6980	1.507335	0.000368
5705	1.507162	0.000368
5128	1.507236	0.000368
5632	1.507287	0.000368
5842	1.507493	0.000368
9656	1.507361	0.000368
7110	1.506825	0.000368
8603	1.506831	0.000368
6578	1.507032	0.000368
9245	1.506861	0.000368
6869	1.506984	0.000368
6276	1.507180	0.000368
7375	1.506578	0.000368
7426	1.507049	0.000368
6818	1.506569	0.000368
6398	1.506691	0.000368
6820	1.506859	0.000368
7847	1.506629	0.000368
5065	1.507910	0.000368
9271	1.506996	0.000368
8375	1.506837	0.000368
8387	1.506956	0.000368
6302	1.506970	0.000368
9062	1.506966	0.000368
6976	1.507169	0.000368
6142	1.507112	0.000368
7404	1.507300	0.000368
6690	1.507282	0.000368
7120	1.506724	0.000368
5730	1.507771	0.000368
7851	1.506709	0.000368
6624	1.507515	0.000368
9115	1.506752	0.000368
9709	1.507702	0.000368
8985	1.507100	0.000368
7577	1.506887	0.000368
7144	1.507184	0.000368
8037	1.506533	0.000368
7666	1.506826	0.000368
6487	1.506571	0.000368
5569	1.507195	0.000368
8561	1.507328	0.000368
8312	1.506502	0.000368
8729	1.507072	0.000368
5358	1.507066	0.000368
8884	1.506525	0.000368
5404	1.506704	0.000368
6404	1.507136	0.000368
9823	1.507140	0.000368
8890	1.506774	0.000368
5888	1.506762	0.000368
7340	1.506418	0.000368
6037	1.506984	0.000368
6526	1.506924	0.000368
6174	1.507466	0.000368
6945	1.507251	0.000368
7894	1.506852	0.000368
6201	1.507441	0.000368
6436	1.507055	0.000368
8097	1.507023	0.000368
6599	1.506775	0.000368
9328	1.507191	0.000368
5041	1.506907	0.000368
7679	1.506855	0.000368
7414	1.507097	0.000368
6181	1.506901	0.000368
7474	1.507124	0.000368
6125	1.507594	0.000368
6046	1.507255	0.000368
9079	1.506411	0.000368
7714	1.507183	0.000368
6387	1.507235	0.000368
6908	1.506996	0.000368
7658	1.507219	0.000368
6946	1.507337	0.000368
5957	1.507740	0.000368
7665	1.506916	0.000368
6904	1.506657	0.000368
8819	1.506755	0.000368
9427	1.507214	0.000368
9670	1.507075	0.000368
6858	1.506103	0.000368
5536	1.506930	0.000368
6785	1.506421	0.000368
6193	1.506349	0.000368
5306	1.507651	0.000368
9489	1.506991	0.000368
8377	1.507029	0.000368
7990	1.506665	0.000368
6805	1.506558	0.000368
7869	1.507731	0.000368
5775	1.507413	0.000368
9866	1.507265	0.000368
8806	1.506801	0.000368
6572	1.507240	0.000368
8615	1.506688	0.000368
6394	1.506791	0.000368
6930	1.507110	0.000368
5621	1.507635	0.000368
8896	1.507163	0.000368
9399	1.506479	0.000368
6095	1.507251	0.000368
9786	1.507564	0.000368
9122	1.506696	0.000368
6924	1.506470	0.000368
9513	1.507124	0.000368
5513	1.507267	0.000368
6588	1.507452	0.000368
6360	1.506914	0.000368
8992	1.507299	0.000368
7983	1.506596	0.000368
7449	1.506578	0.000368
6675	1.507475	0.000368
7990	1.506519	0.000368
6887	1.506782	0.000368
7729	1.506904	0.000368
9654	1.506665	0.000368
5495	1.507350	0.000368
8680	1.506373	0.000368
9951	1.506896	0.000368
6566	1.506430	0.000368
6353	1.507196	0.000368
9689	1.506533	0.000368
9170	1.506830	0.000368
9287	1.506828	0.000368
9373	1.507343	0.000368
9695	1.506884	0.000368
8059	1.507036	0.000368
6732	1.506770	0.000368
8901	1.507500	0.000368
9418	1.506612	0.000368
9474	1.507281	0.000368
5183	1.506512	0.000368
8997	1.506894	0.000368
7006	1.506680	0.000368
7521	1.507038	0.000368
8905	1.507459	0.000368
5721	1.507486	0.000368
6101	1.506673	0.000368
9163	1.507239	0.000368
8362	1.507167	0.000368
8674	1.507205	0.000368
7775	1.506322	0.000368
9537	1.506749	0.000368
7390	1.506496	0.000368
8940	1.506539	0.000368
5227	1.506874	0.000368
5734	1.507311	0.000368
8368	1.506806	0.000368
6050	1.507627	0.000368
5658	1.507191	0.000368
9304	1.506446	0.000368
8702	1.506819	0.000368
7370	1.507559	0.000368
5447	1.506437	0.000368
5864	1.507251	0.000368
9035	1.506335	0.000368
6612	1.506993	0.000368
6504	1.506204	0.000368
8777	1.506671	0.000368
8474	1.507261	0.000368
9250	1.506536	0.000368
9003	1.506560	0.000368
7159	1.507776	0.000368
7860	1.506574	0.000368
9125	1.506117	0.000368
8692	1.507125	0.000368
8697	1.507758	0.000368
8960	1.507111	0.000368
7563	1.508331	0.000368
9180	1.507611	0.000368
6083	1.507504	0.000368
9659	1.506232	0.000368
8471	1.507020	0.000368
8079	1.506920	0.000368
8940	1.506760	0.000368
7052	1.506961	0.000368
8750	1.507002	0.000368
9975	1.507252	0.000368
9791	1.507408	0.000368
8592	1.506895	0.000368
6020	1.507461	0.000368
9047	1.506518	0.000368
9568	1.506990	0.000368
6248	1.507406	0.000368
6649	1.507173	0.000368
5362	1.506889	0.000368
8496	1.507128	0.000368
6072	1.506981	0.000368
6882	1.507591	0.000368
8759	1.507643	0.000368
5153	1.507972	0.000368
5318	1.507226	0.000368
5091	1.507408	0.000368
6600	1.506853	0.000368
6737	1.507470	0.000368
9531	1.506961	0.000368
6093	1.507541	0.000368
9896	1.507353	0.000368
9339	1.506746	0.000368
7775	1.506796	0.000368
9081	1.507473	0.000368
8480	1.506504	0.000368
5657	1.507155	0.000368
8111	1.506944	0.000368
9245	1.507207	0.000368
9803	1.506190	0.000368
6081	1.506687	0.000368
5363	1.507451	0.000368
9270	1.506973	0.000368
7867	1.506744	0.000368
6376	1.506824	0.000368
7882	1.507371	0.000368
7827	1.507413	0.000368
8758	1.507141	0.000368
5271	1.508473	0.000368
6589	1.507021	0.000368
7997	1.506983	0.000368
7611	1.506466	0.000368
6699	1.506997	0.000368
7347	1.507137	0.000368
6728	1.507208	0.000368
9131	1.506948	0.000368
9849	1.507000	0.000368
9682	1.507012	0.000368
6968	1.506919	0.000368
5669	1.507220	0.000368
5376	1.507118	0.000368
8617	1.507204	0.000368
6646	1.506640	0.000368
9920	1.507354	0.000368
6684	1.506741	0.000368
8188	1.507151	0.000368
7097	1.507372	0.000368
8489	1.506906	0.000368
9646	1.507459	0.000368
8176	1.506783	0.000368
5937	1.507513	0.000368
8328	1.507870	0.000368
5381	1.507297	0.000368
6122	1.506730	0.000368
9247	1.507200	0.000368
5655	1.506983	0.000368
5301	1.507038	0.000368
6371	1.506899	0.000368
9486	1.507193	0.000368
5361	1.507028	0.000368
9735	1.507043	0.000368
9544	1.506712	0.000368
9187	1.507125	0.000368
9064	1.507438	0.000368
8536	1.507754	0.000368
8452	1.507276	0.000368
5605	1.507045	0.000368
