threshold	A	u(A)
7465	1.507047	0.000368
6685	1.507641	0.000368
9543	1.506980	0.000368
6411	1.507116	0.000368
9079	1.506882	0.000368
8127	1.507188	0.000368
8225	1.507069	0.000368
7453	1.506994	0.000368
6852	1.507210	0.000368
5977	1.507566	0.000368
5795	1.507565	0.000368
7285	1.507071	0.000368
5936	1.507468	0.000368
8706	1.506950	0.000368
7003	1.507048	0.000368
5047	1.507298	0.000368
5811	1.506609	0.000368
9324	1.506470	0.000368
5126	1.506576	0.000368
7057	1.507318	0.000368
7764	1.507141	0.000368
6723	1.507168	0.000368
6933	1.507196	0.000368
9765	1.506840	0.000368
8193	1.506903	0.000368
9304	1.507535	0.000368
9639	1.507410	0.000368
8117	1.506867	0.000368
8928	1.506983	0.000368
7079	1.506881	0.000368
5287	1.507068	0.000368
5676	1.506594	0.000368
5751	1.507330	0.000368
9890	1.506806	0.000368
8548	1.507334	0.000368
5232	1.507692	0.000368
6202	1.506962	0.000368
9455	1.507639	0.000368
7061	1.507077	0.000368
9963	1.506943	0.000368
7977	1.506329	0.000368
6028	1.507059	0.000368
8792	1.507125	0.000368
7776	1.507020	0.000368
8238	1.506834	0.000368
6520	1.506492	0.000368
7224	1.507146	0.000368
8481	1.506938	0.000368
7030	1.507483	0.000368
5185	1.506813	0.000368
9561	1.507220	0.000368
9200	1.506577	0.000368
7077	1.506990	0.000368
5157	1.507455	0.000368
5978	1.507453	0.000368
9915	1.506021	0.000368
8255	1.506727	0.000368
9958	1.506567	0.000368
6589	1.506947	0.000368
5901	1.507413	0.000368
7667	1.506853	0.000368
8628	1.507306	0.000368
7951	1.506973	0.000368
6681	1.507887	0.000368
8596	1.506886	0.000368
6050	1.506590	0.000368
6788	1.506996	0.000368
9201	1.506879	0.000368
9190	1.506678	0.000368
7565	1.507212	0.000368
9033	1.507095	0.000368
8195	1.506805	0.000368
8561	1.506857	0.000368
7646	1.507424	0.000368
6704	1.507127	0.000368
5413	1.506642	0.000368
5876	1.506947	0.000368
6012	1.506938	0.000368
7192	1.506996	0.000368
7813	1.507316	0.000368
6640	1.507039	0.000368
5886	1.507078	0.000368
5526	1.507938	0.000368
5165	1.506741	0.000368
8782	1.506893	0.000368
5825	1.507180	0.000368
8585	1.507098	0.000368
8560	1.506726	0.000368
7947	1.507440	0.000368
8853	1.506868	0.000368
5471	1.507426	0.000368
5827	1.506943	0.000368
9906	1.506632	0.000368
6771	1.507682	0.000368
8839	1.506754	0.000368
9562	1.506835	0.000368
7338	1.507732	0.000368
5017	1.507015	0.000368
6868	1.507593	0.000368
5255	1.506939	0.000368
8803	1.506911	0.000368
9031	1.506019	0.000368
5056	1.507327	0.000368
8076	1.506859	0.000368
5108	1.507618	0.000368
8595	1.506645	0.000368
8995	1.506337	0.000368
7335	1.507091	0.000368
6987	1.507246	0.000368
9885	1.507766	0.000368
5527	1.507487	0.000368
7713	1.506956	0.000368
5943	1.507771	0.000368
8518	1.507260	0.000368
7451	1.507207	0.000368
8338	1.506836	0.000368
8032	1.506720	0.000368
8099	1.507352	0.000368
6890	1.506568	0.000368
8265	1.506948	0.000368
9481	1.506485	0.000368
5952	1.507309	0.000368
5096	1.507270	0.000368
8201	1.506983	0.000368
7231	1.507059	0.000368
8871	1.506566	0.000368
8296	1.507284	0.000368
6371	1.507602	0.000368
6754	1.506905	0.000368
8822	1.506711	0.000368
9643	1.506967	0.000368
6468	1.507028	0.000368
9953	1.507149	0.000368
5049	1.507339	0.000368
8989	1.507184	0.000368
9688	1.506984	0.000368
6496	1.506447	0.000368
6403	1.506910	0.000368
9296	1.507338	0.000368
8385	1.506789	0.000368
6616	1.506869	0.000368
8127	1.506324	0.000368
8768	1.506987	0.000368
5590	1.506986	0.000368
7295	1.507592	0.000368
6440	1.506526	0.000368
8334	1.507899	0.000368
9173	1.506702	0.000368
8446	1.507857	0.000368
9945	1.506524	0.000368
8904	1.506518	0.000368
6846	1.507564	0.000368
5768	1.506951	0.000368
5229	1.507792	0.000368
7272	1.507394	0.000368
8304	1.507590	0.000368
9091	1.507140	0.000368
7748	1.506754	0.000368
7331	1.507070	0.000368
9092	1.506687	0.000368
6152	1.506862	0.000368
5061	1.506786	0.000368
7668	1.507430	0.000368
9421	1.506454	0.000368
5086	1.507418	0.000368
6876	1.507054	0.000368
6155	1.507457	0.000368
9519	1.506883	0.000368
9129	1.506892	0.000368
7401	1.507620	0.000368
6424	1.507048	0.000368
6573	1.507418	0.000368
6049	1.506918	0.000368
9054	1.506294	0.000368
7333	1.507347	0.000368
8397	1.507078	0.000368
5161	1.506835	0.000368
6031	1.507419	0.000368
7129	1.507078	0.000368
8972	1.507045	0.000368
7750	1.506608	0.000368
6743	1.506990	0.000368
5072	1.507101	0.000368
6050	1.506915	0.000368
8434	1.506858	0.000368
5975	1.506125	0.000368
7654	1.506135	0.000368
6903	1.506827	0.000368
9394	1.507436	0.000368
5126	1.507052	0.000368
7315	1.507483	0.000368
7225	1.507471	0.000368
7399	1.507039	0.000368
6133	1.507056	0.000368
8896	1.506122	0.000368
6121	1.507966	0.000368
9868	1.507356	0.000368
9008	1.506006	0.000368
7014	1.507035	0.000368
8410	1.506747	0.000368
7421	1.506765	0.000368
5689	1.507457	0.000368
6527	1.506761	0.000368
6646	1.506526	0.000368
6870	1.507571	0.000368
5827	1.507347	0.000368
5790	1.506252	0.000368
8587	1.506373	0.000368
7870	1.506679	0.000368
5933	1.507181	0.000368
7893	1.506726	0.000368
6306	1.507044	0.000368
7854	1.507620	0.000368
5574	1.507929	0.000368
8620	1.506351	0.000368
5233	1.507403	0.000368
6969	1.506774	0.000368
5961	1.507094	0.000368
6053	1.507159	0.000368
8830	1.506986	0.000368
7854	1.506366	0.000368
6471	1.507193	0.000368
6323	1.507290	0.000368
9107	1.506901	0.000368
8534	1.507079	0.000368
8234	1.506865	0.000368
7796	1.507543	0.000368
8807	1.507364	0.000368
9151	1.506290	0.000368
7865	1.506594	0.000368
5582	1.506881	0.000368
6223	1.507308	0.000368
8142	1.506989	0.000368
8665	1.507452	0.000368
9181	1.507356	0.000368
6976	1.507179	0.000368
6261	1.507027	0.000368
7414	1.506986	0.000368
7323	1.506404	0.000368
5701	1.506827	0.000368
5850	1.507390	0.000368
9677	1.506879	0.000368
6907	1.506886	0.000368
6759	1.507314	0.000368
6651	1.507325	0.000368
9675	1.507396	0.000368
9637	1.506778	0.000368
7681	1.507184	0.000368
9939	1.507474	0.000368
5812	1.507233	0.000368
8024	1.507179	0.000368
8905	1.506452	0.000368
5902	1.507307	0.000368
9128	1.506821	0.000368
6476	1.506786	0.000368
6394	1.508263	0.000368
6830	1.507381	0.000368
6659	1.507387	0.000368
5585	1.507082	0.000368
9162	1.506877	0.000368
9979	1.507310	0.000368
9119	1.506369	0.000368
9686	1.506922	0.000368
9067	1.507241	0.000368
9210	1.507345	0.000368
5273	1.507514	0.000368
6151	1.507760	0.000368
5740	1.508142	0.000368
6920	1.506846	0.000368
9921	1.507346	0.000368
9591	1.506809	0.000368
5725	1.507153	0.000368
7360	1.506914	0.000368
8084	1.507093	0.000368
9244	1.507104	0.000368
9727	1.506593	0.000368
9115	1.507596	0.000368
7799	1.507534	0.000368
6262	1.507564	0.000368
5599	1.507324	0.000368
5573	1.507830	0.000368
6478	1.506538	0.000368
6717	1.506944	0.000368
8590	1.507416	0.000368
5507	1.508010	0.000368
6627	1.507072	0.000368
7840	1.507045	0.000368
8966	1.506812	0.000368
6845	1.506826	0.000368
7551	1.507275	0.000368
9464	1.506779	0.000368
5051	1.507574	0.000368
5703	1.506934	0.000368
7890	1.506772	0.000368
6604	1.507267	0.000368
5677	1.506782	0.000368
5892	1.507219	0.000368
5965	1.507325	0.000368
8676	1.506895	0.000368
7827	1.507446	0.000368
5776	1.507575	0.000368
8833	1.506994	0.000368
8691	1.507107	0.000368
9874	1.507333	0.000368
8144	1.506961	0.000368
6438	1.506930	0.000368
7912	1.507251	0.000368
7451	1.506997	0.000368
6263	1.506972	0.000368
6539	1.507859	0.000368
9766	1.506720	0.000368
7365	1.507680	0.000368
5710	1.507778	0.000368
6457	1.507788	0.000368
9525	1.506861	0.000368
8993	1.507505	0.000368
9796	1.506344	0.000368
9797	1.507297	0.000368
9955	1.506678	0.000368
9236	1.506679	0.000368
8192	1.507108	0.000368
7045	1.507318	0.000368
8483	1.506904	0.000368
7116	1.507261	0.000368
6039	1.507127	0.000368
6233	1.507495	0.000368
8953	1.507151	0.000368
9528	1.506799	0.000368
7970	1.506516	0.000368
8597	1.506847	0.000368
6342	1.507116	0.000368
8548	1.507448	0.000368
8615	1.506961	0.000368
8180	1.507346	0.000368
6581	1.507265	0.000368
5141	1.506950	0.000368
7118	1.506319	0.000368
6836	1.506796	0.000368
5673	1.507509	0.000368
7300	1.507702	0.000368
6402	1.506976	0.000368
7615	1.507150	0.000368
6489	1.507857	0.000368
7704	1.506642	0.000368
6750	1.506378	0.000368
8222	1.507318	0.000368
9217	1.507174	0.000368
7747	1.507331	0.000368
5411	1.507013	0.000368
5222	1.507110	0.000368
7179	1.507093	0.000368
6164	1.507374	0.000368
6227	1.507276	0.000368
6017	1.506794	0.000368
7842	1.506808	0.000368
6300	1.507396	0.000368
7692	1.507214	0.000368
9778	1.506745	0.000368
6523	1.507345	0.000368
7871	1.507165	0.000368
8789	1.507499	0.000368
5180	1.506798	0.000368
6457	1.507431	0.000368
8121	1.506602	0.000368
5551	1.507495	0.000368
8570	1.506776	0.000368
8371	1.505975	0.000368
6746	1.507596	0.000368
7714	1.507422	0.000368
9986	1.506602	0.000368
5620	1.507305	0.000368
7300	1.507156	0.000368
7432	1.506898	0.000368
9367	1.507107	0.000368
7200	1.507559	0.000368
9218	1.506527	0.000368
7623	1.506840	0.000368
8168	1.506926	0.000368
8656	1.506279	0.000368
7259	1.507181	0.000368
8050	1.507084	0.000368
8741	1.506573	0.000368
8854	1.507091	0.000368
9898	1.507492	0.000368
7553	1.507019	0.000368
5486	1.507332	0.000368
7282	1.507097	0.000368
8615	1.506999	0.000368
9457	1.507008	0.000368
5287	1.507599	0.000368
6451	1.507880	0.000368
6181	1.506618	0.000368
5886	1.507014	0.000368
9813	1.507038	0.000368
8500	1.506947	0.000368
7122	1.507218	0.000368
9169	1.506426	0.000368
6963	1.507145	0.000368
9315	1.506824	0.000368
7402	1.507064	0.000368
6382	1.506336	0.000368
5440	1.507834	0.000368
5883	1.507497	0.000368
5504	1.507482	0.000368
6337	1.506990	0.000368
8289	1.507970	0.000368
6847	1.507215	0.000368
5766	1.506798	0.000368
5159	1.506610	0.000368
8667	1.506854	0.000368
6420	1.507383	0.000368
8679	1.506391	0.000368
5307	1.507107	0.000368
5361	1.507065	0.000368
5921	1.507072	0.000368
7098	1.506227	0.000368
8014	1.507042	0.000368
5455	1.507101	0.000368
7946	1.507332	0.000368
5870	1.507608	0.000368
8878	1.506354	0.000368
5266	1.507040	0.000368
8958	1.507292	0.000368
8740	1.507392	0.000368
8042	1.506756	0.000368
8212	1.507317	0.000368
5093	1.507049	0.000368
7070	1.506742	0.000368
6111	1.507172	0.000368
7833	1.506949	0.000368
8193	1.507193	0.000368
6509	1.506975	0.000368
8352	1.506918	0.000368
7650	1.507013	0.000368
6970	1.506843	0.000368
6060	1.507661	0.000368
6890	1.506964	0.000368
6259	1.507133	0.000368
8130	1.506898	0.000368
5223	1.507489	0.000368
8992	1.507349	0.000368
9481	1.506423	0.000368
7120	1.507414	0.000368
8663	1.507312	0.000368
9071	1.507019	0.000368
9747	1.506934	0.000368
9264	1.506580	0.000368
6553	1.507206	0.000368
9636	1.506920	0.000368
9327	1.506897	0.000368
5891	1.506966	0.000368
6712	1.507092	0.000368
6020	1.508116	0.000368
6675	1.507498	0.000368
8300	1.507233	0.000368
7070	1.506541	0.000368
6109	1.506435	0.000368
7178	1.507520	0.000368
6499	1.507256	0.000368
8480	1.506805	0.000368
5415	1.507955	0.000368
7224	1.506705	0.000368
5514	1.507498	0.000368
7894	1.506709	0.000368
8956	1.507278	0.000368
5598	1.507161	0.000368
5293	1.506931	0.000368
9175	1.507123	0.000368
6353	1.506977	0.000368
8204	1.507254	0.000368
9853	1.507089	0.000368
9887	1.506627	0.000368
9076	1.506695	0.000368
5022	1.508016	0.000368
7688	1.506839	0.000368
7743	1.507049	0.000368
6075	1.507299	0.000368
5885	1.507062	0.000368
8820	1.507084	0.000368
7730	1.507789	0.000368
7967	1.506906	0.000368
9390	1.507678	0.000368
8070	1.507324	0.000368
9853	1.506742	0.000368
8518	1.506810	0.000368
8926	1.507032	0.000368
6361	1.506805	0.000368
9653	1.507809	0.000368
9140	1.507303	0.000368
8718	1.507025	0.000368
6578	1.506559	0.000368
8633	1.507147	0.000368
8674	1.507209	0.000368
9683	1.507403	0.000368
6938	1.506882	0.000368
5878	1.507123	0.000368
5802	1.506462	0.000368
7266	1.507125	0.000368
8881	1.507086	0.000368
6609	1.506515	0.000368
6642	1.507125	0.000368
5904	1.507026	0.000368
7822	1.506606	0.000368
7138	1.507088	0.000368
9433	1.507505	0.000368
9943	1.506045	0.000368
7269	1.507193	0.000368
9853	1.507271	0.000368
7279	1.506964	0.000368
8654	1.506994	0.000368
8199	1.507057	0.000368
5313	1.507448	0.000368
9385	1.506740	0.000368
9648	1.507148	0.000368
8996	1.506815	0.000368
5895	1.507460	0.000368
8699	1.506643	0.000368
5412	1.506759	0.000368
8560	1.507157	0.000368
6437	1.507232	0.000368
6275	1.507906	0.000368
9588	1.507457	0.000368
9157	1.506877	0.000368
5198	1.507205	0.000368
6070	1.507062	0.000368
9010	1.506939	0.000368
9705	1.506920	0.000368
5360	1.506936	0.000368
6461	1.507174	0.000368
9276	1.507383	0.000368
5154	1.507021	0.000368
7295	1.506889	0.000368
9258	1.506825	0.000368
8402	1.506934	0.000368
5909	1.506766	0.000368
7917	1.506242	0.000368
8067	1.507473	0.000368
5723	1.507140	0.000368
5614	1.507236	0.000368
8921	1.507325	0.000368
9654	1.507022	0.000368
8483	1.506910	0.000368
5088	1.507450	0.000368
8762	1.507207	0.000368
8496	1.506916	0.000368
8761	1.506966	0.000368
7101	1.506795	0.000368
7459	1.507014	0.000368
7145	1.506662	0.000368
8360	1.506789	0.000368
5427	1.507638	0.000368
7470	1.506762	0.000368
7149	1.506846	0.000368
5378	1.507204	0.000368
6557	1.507518	0.000368
6422	1.507733	0.000368
7659	1.507009	0.000368
8991	1.507096	0.000368
5189	1.507007	0.000368
8236	1.507903	0.000368
6655	1.506445	0.000368
8002	1.507568	0.000368
9262	1.507311	0.000368
8442	1.507737	0.000368
9319	1.507085	0.000368
7837	1.506812	0.000368
7862	1.506774	0.000368
5303	1.507416	0.000368
9501	1.506507	0.000368
5662	1.507055	0.000368
7583	1.507801	0.000368
8650	1.507095	0.000368
7379	1.506743	0.000368
8662	1.507008	0.000368
8861	1.506594	0.000368
7856	1.506641	0.000368
8100	1.507853	0.000368
5740	1.506477	0.000368
5745	1.507481	0.000368
5171	1.507685	0.000368
6508	1.507049	0.000368
9328	1.506187	0.000368
8961	1.507203	0.000368
9456	1.506460	0.000368
7289	1.506862	0.000368
8406	1.507222	0.000368
6341	1.507436	0.000368
6381	1.507751	0.000368
5356	1.507797	0.000368
6281	1.507260	0.000368
9984	1.506981	0.000368
8278	1.506923	0.000368
7741	1.507042	0.000368
6843	1.506937	0.000368
8881	1.507428	0.000368
9022	1.507136	0.000368
5842	1.506843	0.000368
5205	1.507307	0.000368
9722	1.506845	0.000368
9814	1.507433	0.000368
9877	1.506829	0.000368
7021	1.507746	0.000368
6981	1.506996	0.000368
9228	1.506441	0.000368
7256	1.506873	0.000368
6982	1.506655	0.000368
7787	1.507478	0.000368
8448	1.507162	0.000368
6604	1.506934	0.000368
5239	1.507338	0.000368
5755	1.507969	0.000368
6263	1.507681	0.000368
5508	1.507056	0.000368
8034	1.507135	0.000368
9521	1.507089	0.000368
8254	1.506348	0.000368
9639	1.507325	0.000368
9970	1.507146	0.000368
8637	1.507085	0.000368
7515	1.507229	0.000368
8963	1.507507	0.000368
5917	1.507670	0.000368
9393	1.506922	0.000368
8528	1.507050	0.000368
9979	1.506605	0.000368
5507	1.507267	0.000368
9001	1.507476	0.000368
5222	1.507639	0.000368
6185	1.507331	0.000368
9077	1.506775	0.000368
6591	1.507260	0.000368
9081	1.506779	0.000368
5660	1.506254	0.000368
8971	1.506838	0.000368
6185	1.506766	0.000368
8990	1.506870	0.000368
5474	1.506690	0.000368
9711	1.506640	0.000368
9650	1.507194	0.000368
9946	1.506963	0.000368
5084	1.507167	0.000368
6196	1.507273	0.000368
7800	1.507490	0.000368
6252	1.506827	0.000368
9494	1.507074	0.000368
7446	1.506665	0.000368
7210	1.506293	0.000368
5012	1.506901	0.000368
8275	1.506129	0.000368
9000	1.507563	0.000368
9804	1.506640	0.000368
6042	1.506576	0.000368
7616	1.507143	0.000368
5243	1.506677	0.000368
7160	1.507087	0.000368
5249	1.507227	0.000368
8385	1.507497	0.000368
8343	1.507283	0.000368
7237	1.507355	0.000368
6390	1.507015	0.000368
8705	1.506729	0.000368
7896	1.506708	0.000368
6178	1.506571	0.000368
6856	1.507186	0.000368
5482	1.507244	0.000368
5802	1.507526	0.000368
9262	1.506896	0.000368
6220	1.506832	0.000368
9085	1.506915	0.000368
9202	1.507359	0.000368
6499	1.507016	0.000368
9556	1.507483	0.000368
7378	1.506679	0.000368
6036	1.507114	0.000368
8462	1.506832	0.000368
9748	1.506699	0.000368
5670	1.506696	0.000368
9833	1.506408	0.000368
7296	1.507755	0.000368
9938	1.506430	0.000368
6102	1.507209	0.000368
6546	1.507199	0.000368
5534	1.507668	0.000368
8710	1.507802	0.000368
7993	1.506952	0.000368
6206	1.506900	0.000368
9495	1.506884	0.000368
8269	1.507502	0.000368
6088	1.506421	0.000368
8337	1.506761	0.000368
6106	1.506815	0.000368
5902	1.507466	0.000368
8633	1.506474	0.000368
5151	1.506912	0.000368
8521	1.507338	0.000368
8916	1.506915	0.000368
7435	1.506961	0.000368
9764	1.507323	0.000368
6865	1.507125	0.000368
5392	1.507166	0.000368
7424	1.506635	0.000368
9986	1.507094	0.000368
8369	1.506805	0.000368
9338	1.506451	0.000368
8117	1.506780	0.000368
5662	1.507216	0.000368
7009	1.506917	0.000368
5162	1.507180	0.000368
6505	1.507337	0.000368
9413	1.507037	0.000368
9332	1.506625	0.000368
7905	1.507426	0.000368
8002	1.507381	0.000368
5994	1.507139	0.000368
5504	1.507052	0.000368
8199	1.506048	0.000368
9123	1.507729	0.000368
9769	1.507189	0.000368
6969	1.507086	0.000368
7345	1.507546	0.000368
5636	1.507359	0.000368
8718	1.507091	0.000368
7046	1.506469	0.000368
8669	1.506585	0.000368
8102	1.507062	0.000368
5375	1.507470	0.000368
7736	1.506559	0.000368
9503	1.506626	0.000368
8728	1.507191	0.000368
5540	1.508022	0.000368
6741	1.507326	0.000368
9020	1.507222	0.000368
7426	1.507225	0.000368
5103	1.507409	0.000368
9705	1.506748	0.000368
6202	1.507562	0.000368
8395	1.506210	0.000368
8404	1.507346	0.000368
7005	1.507470	0.000368
6036	1.506765	0.000368
6875	1.506801	0.000368
7364	1.507507	0.000368
9565	1.507275	0.000368
6071	1.507044	0.000368
7969	1.507072	0.000368
7966	1.506411	0.000368
9135	1.507228	0.000368
6463	1.506777	0.000368
6858	1.507043	0.000368
8173	1.507005	0.000368
8757	1.506474	0.000368
7562	1.507649	0.000368
6621	1.507086	0.000368
9636	1.506780	0.000368
5307	1.507446	0.000368
7968	1.507710	0.000368
8616	1.506620	0.000368
6891	1.507360	0.000368
6617	1.506980	0.000368
8366	1.506931	0.000368
8242	1.506986	0.000368
6180	1.506934	0.000368
7094	1.507244	0.000368
6310	1.507084	0.000368
7144	1.507440	0.000368
8159	1.506477	0.000368
6866	1.506944	0.000368
9409	1.506717	0.000368
9428	1.506912	0.000368
5725	1.507487	0.000368
5427	1.506850	0.000368
8607	1.507324	0.000368
6735	1.507180	0.000368
7562	1.507101	0.000368
6712	1.506644	0.000368
9239	1.506457	0.000368
7445	1.507607	0.000368
5173	1.506885	0.000368
9028	1.507113	0.000368
9958	1.506598	0.000368
5095	1.506810	0.000368
8244	1.506879	0.000368
7244	1.506889	0.000368
8849	1.506894	0.000368
7928	1.506689	0.000368
5385	1.507418	0.000368
6656	1.507136	0.000368
9987	1.506778	0.000368
8570	1.506919	0.000368
8658	1.507658	0.000368
5444	1.507182	0.000368
7465	1.507305	0.000368
7114	1.507502	0.000368
8824	1.507126	0.000368
8641	1.507389	0.000368
7031	1.507041	0.000368
7222	1.506511	0.000368
5639	1.507075	0.000368
8714	1.507530	0.000368
5347	1.507476	0.000368
9578	1.507482	0.000368
7947	1.507876	0.000368
5249	1.507098	0.000368
6693	1.506951	0.000368
5055	1.506921	0.000368
8192	1.507169	0.000368
9636	1.506326	0.000368
8962	1.506591	0.000368
6154	1.507726	0.000368
9838	1.507117	0.000368
8186	1.506998	0.000368
8335	1.507165	0.000368
9621	1.506876	0.000368
5993	1.507073	0.000368
8811	1.506739	0.000368
9639	1.507170	0.000368
7157	1.507366	0.000368
9939	1.507395	0.000368
8351	1.506440	0.000368
7812	1.506902	0.000368
5946	1.506813	0.000368
6424	1.507210	0.000368
5594	1.507078	0.000368
8638	1.506968	0.000368
5276	1.507105	0.000368
5500	1.507107	0.000368
9997	1.506563	0.000368
8011	1.506828	0.000368
7935	1.507632	0.000368
5188	1.506712	0.000368
7038	1.507084	0.000368
8822	1.506439	0.000368
8915	1.507165	0.000368
8366	1.507196	0.000368
9099	1.506733	0.000368
6479	1.507243	0.000368
9808	1.507107	0.000368
6940	1.507719	0.000368
7305	1.507088	0.000368
6474	1.507222	0.000368
8853	1.506345	0.000368
7093	1.506337	0.000368
5393	1.507837	0.000368
9188	1.506775	0.000368
8285	1.506690	0.000368
9572	1.507141	0.000368
9866	1.506961	0.000368
6205	1.507194	0.000368
9346	1.507591	0.000368
6844	1.506853	0.000368
6588	1.507585	0.000368
5010	1.507216	0.000368
7394	1.507017	0.000368
8608	1.507310	0.000368
6002	1.507123	0.000368
5591	1.506144	0.000368
7352	1.506847	0.000368
9787	1.507481	0.000368
7337	1.507123	0.000368
5987	1.506217	0.000368
5765	1.508095	0.000368
6209	1.507434	0.000368
8299	1.507126	0.000368
8454	1.507758	0.000368
9331	1.506980	0.000368
7496	1.507370	0.000368
9750	1.506843	0.000368
9900	1.506798	0.000368
